Time of Day (radians), Surface Temperature (K)
   0.00000,  53.84959
   0.00126,  53.84514
   0.00251,  53.84069
   0.00377,  53.83625
   0.00503,  53.83181
   0.00628,  53.82737
   0.00754,  53.82293
   0.00880,  53.81850
   0.01005,  53.81407
   0.01131,  53.80965
   0.01257,  53.80523
   0.01382,  53.80081
   0.01508,  53.79639
   0.01634,  53.79198
   0.01759,  53.78757
   0.01885,  53.78317
   0.02011,  53.77877
   0.02136,  53.77437
   0.02262,  53.76998
   0.02388,  53.76559
   0.02513,  53.76120
   0.02639,  53.75681
   0.02765,  53.75243
   0.02890,  53.74805
   0.03016,  53.74368
   0.03142,  53.73931
   0.03267,  53.73494
   0.03393,  53.73058
   0.03519,  53.72622
   0.03644,  53.72186
   0.03770,  53.71750
   0.03896,  53.71315
   0.04021,  53.70880
   0.04147,  53.70446
   0.04273,  53.70012
   0.04398,  53.69578
   0.04524,  53.69144
   0.04650,  53.68711
   0.04775,  53.68278
   0.04901,  53.67846
   0.05027,  53.67414
   0.05152,  53.66982
   0.05278,  53.66550
   0.05404,  53.66119
   0.05529,  53.65688
   0.05655,  53.65258
   0.05781,  53.64827
   0.05906,  53.64397
   0.06032,  53.63968
   0.06158,  53.63538
   0.06283,  53.63110
   0.06409,  53.62681
   0.06535,  53.62253
   0.06660,  53.61825
   0.06786,  53.61397
   0.06912,  53.60969
   0.07037,  53.60542
   0.07163,  53.60116
   0.07288,  53.59689
   0.07414,  53.59263
   0.07540,  53.58837
   0.07665,  53.58412
   0.07791,  53.57987
   0.07917,  53.57562
   0.08042,  53.57137
   0.08168,  53.56713
   0.08294,  53.56289
   0.08419,  53.55866
   0.08545,  53.55442
   0.08671,  53.55019
   0.08796,  53.54597
   0.08922,  53.54175
   0.09048,  53.53753
   0.09173,  53.53331
   0.09299,  53.52909
   0.09425,  53.52488
   0.09550,  53.52068
   0.09676,  53.51647
   0.09802,  53.51227
   0.09927,  53.50807
   0.10053,  53.50387
   0.10179,  53.49968
   0.10304,  53.49549
   0.10430,  53.49131
   0.10556,  53.48712
   0.10681,  53.48294
   0.10807,  53.47877
   0.10933,  53.47459
   0.11058,  53.47042
   0.11184,  53.46625
   0.11310,  53.46209
   0.11435,  53.45793
   0.11561,  53.45377
   0.11687,  53.44961
   0.11812,  53.44546
   0.11938,  53.44131
   0.12064,  53.43716
   0.12189,  53.43302
   0.12315,  53.42888
   0.12441,  53.42474
   0.12566,  53.42061
   0.12692,  53.41647
   0.12818,  53.41235
   0.12943,  53.40822
   0.13069,  53.40410
   0.13195,  53.39998
   0.13320,  53.39586
   0.13446,  53.39175
   0.13572,  53.38764
   0.13697,  53.38353
   0.13823,  53.37942
   0.13949,  53.37532
   0.14074,  53.37122
   0.14200,  53.36712
   0.14326,  53.36303
   0.14451,  53.35894
   0.14577,  53.35485
   0.14703,  53.35077
   0.14828,  53.34669
   0.14954,  53.34261
   0.15080,  53.33853
   0.15205,  53.33446
   0.15331,  53.33039
   0.15457,  53.32632
   0.15582,  53.32226
   0.15708,  53.31820
   0.15834,  53.31414
   0.15959,  53.31009
   0.16085,  53.30603
   0.16211,  53.30198
   0.16336,  53.29794
   0.16462,  53.29389
   0.16588,  53.28985
   0.16713,  53.28581
   0.16839,  53.28178
   0.16965,  53.27775
   0.17090,  53.27372
   0.17216,  53.26969
   0.17342,  53.26567
   0.17467,  53.26165
   0.17593,  53.25763
   0.17719,  53.25361
   0.17844,  53.24960
   0.17970,  53.24559
   0.18096,  53.24158
   0.18221,  53.23758
   0.18347,  53.23358
   0.18473,  53.22958
   0.18598,  53.22559
   0.18724,  53.22159
   0.18850,  53.21760
   0.18975,  53.21362
   0.19101,  53.20963
   0.19227,  53.20565
   0.19352,  53.20167
   0.19478,  53.19770
   0.19604,  53.19372
   0.19729,  53.18975
   0.19855,  53.18579
   0.19981,  53.18182
   0.20106,  53.17786
   0.20232,  53.17390
   0.20358,  53.16994
   0.20483,  53.16599
   0.20609,  53.16204
   0.20735,  53.15809
   0.20860,  53.15415
   0.20986,  53.15020
   0.21112,  53.14626
   0.21237,  53.14233
   0.21363,  53.13839
   0.21488,  53.13446
   0.21614,  53.13053
   0.21740,  53.12661
   0.21865,  53.12268
   0.21991,  53.11876
   0.22117,  53.11484
   0.22242,  53.11093
   0.22368,  53.10702
   0.22494,  53.10311
   0.22619,  53.09920
   0.22745,  53.09529
   0.22871,  53.09139
   0.22996,  53.08749
   0.23122,  53.08360
   0.23248,  53.07970
   0.23373,  53.07581
   0.23499,  53.07192
   0.23625,  53.06804
   0.23750,  53.06415
   0.23876,  53.06027
   0.24002,  53.05640
   0.24127,  53.05252
   0.24253,  53.04865
   0.24379,  53.04478
   0.24504,  53.04091
   0.24630,  53.03705
   0.24756,  53.03319
   0.24881,  53.02933
   0.25007,  53.02547
   0.25133,  53.02162
   0.25258,  53.01777
   0.25384,  53.01392
   0.25510,  53.01007
   0.25635,  53.00623
   0.25761,  53.00239
   0.25887,  52.99855
   0.26012,  52.99471
   0.26138,  52.99088
   0.26264,  52.98705
   0.26389,  52.98322
   0.26515,  52.97940
   0.26641,  52.97558
   0.26766,  52.97176
   0.26892,  52.96794
   0.27018,  52.96412
   0.27143,  52.96031
   0.27269,  52.95650
   0.27395,  52.95269
   0.27520,  52.94889
   0.27646,  52.94509
   0.27772,  52.94129
   0.27897,  52.93749
   0.28023,  52.93370
   0.28149,  52.92991
   0.28274,  52.92612
   0.28400,  52.92233
   0.28526,  52.91855
   0.28651,  52.91477
   0.28777,  52.91099
   0.28903,  52.90721
   0.29028,  52.90344
   0.29154,  52.89967
   0.29280,  52.89590
   0.29405,  52.89213
   0.29531,  52.88837
   0.29657,  52.88461
   0.29782,  52.88085
   0.29908,  52.87709
   0.30034,  52.87334
   0.30159,  52.86959
   0.30285,  52.86584
   0.30411,  52.86209
   0.30536,  52.85835
   0.30662,  52.85461
   0.30788,  52.85087
   0.30913,  52.84713
   0.31039,  52.84340
   0.31165,  52.83967
   0.31290,  52.83594
   0.31416,  52.83221
   0.31542,  52.82849
   0.31667,  52.82477
   0.31793,  52.82105
   0.31919,  52.81733
   0.32044,  52.81362
   0.32170,  52.80991
   0.32296,  52.80620
   0.32421,  52.80249
   0.32547,  52.79879
   0.32673,  52.79509
   0.32798,  52.79139
   0.32924,  52.78769
   0.33050,  52.78400
   0.33175,  52.78031
   0.33301,  52.77662
   0.33427,  52.77293
   0.33552,  52.76925
   0.33678,  52.76556
   0.33804,  52.76188
   0.33929,  52.75821
   0.34055,  52.75453
   0.34181,  52.75086
   0.34306,  52.74719
   0.34432,  52.74352
   0.34558,  52.73986
   0.34683,  52.73619
   0.34809,  52.73253
   0.34935,  52.72888
   0.35060,  52.72522
   0.35186,  52.72157
   0.35312,  52.71792
   0.35437,  52.71427
   0.35563,  52.71062
   0.35688,  52.70698
   0.35814,  52.70334
   0.35940,  52.69970
   0.36065,  52.69606
   0.36191,  52.69243
   0.36317,  52.68880
   0.36442,  52.68517
   0.36568,  52.68154
   0.36694,  52.67792
   0.36819,  52.67429
   0.36945,  52.67067
   0.37071,  52.66706
   0.37196,  52.66344
   0.37322,  52.65983
   0.37448,  52.65622
   0.37573,  52.65261
   0.37699,  52.64900
   0.37825,  52.64540
   0.37950,  52.64180
   0.38076,  52.63820
   0.38202,  52.63460
   0.38327,  52.63101
   0.38453,  52.62742
   0.38579,  52.62383
   0.38704,  52.62024
   0.38830,  52.61665
   0.38956,  52.61307
   0.39081,  52.60949
   0.39207,  52.60591
   0.39333,  52.60234
   0.39458,  52.59876
   0.39584,  52.59519
   0.39710,  52.59162
   0.39835,  52.58806
   0.39961,  52.58449
   0.40087,  52.58093
   0.40212,  52.57737
   0.40338,  52.57381
   0.40464,  52.57026
   0.40589,  52.56670
   0.40715,  52.56315
   0.40841,  52.55960
   0.40966,  52.55606
   0.41092,  52.55251
   0.41218,  52.54897
   0.41343,  52.54543
   0.41469,  52.54190
   0.41595,  52.53836
   0.41720,  52.53483
   0.41846,  52.53130
   0.41972,  52.52777
   0.42097,  52.52424
   0.42223,  52.52072
   0.42349,  52.51720
   0.42474,  52.51368
   0.42600,  52.51016
   0.42726,  52.50665
   0.42851,  52.50314
   0.42977,  52.49963
   0.43103,  52.49612
   0.43228,  52.49261
   0.43354,  52.48911
   0.43480,  52.48561
   0.43605,  52.48211
   0.43731,  52.47861
   0.43857,  52.47512
   0.43982,  52.47162
   0.44108,  52.46813
   0.44234,  52.46464
   0.44359,  52.46116
   0.44485,  52.45767
   0.44611,  52.45419
   0.44736,  52.45071
   0.44862,  52.44724
   0.44988,  52.44376
   0.45113,  52.44029
   0.45239,  52.43682
   0.45365,  52.43335
   0.45490,  52.42988
   0.45616,  52.42642
   0.45742,  52.42296
   0.45867,  52.41950
   0.45993,  52.41604
   0.46119,  52.41258
   0.46244,  52.40913
   0.46370,  52.40568
   0.46496,  52.40223
   0.46621,  52.39878
   0.46747,  52.39534
   0.46873,  52.39189
   0.46998,  52.38845
   0.47124,  52.38502
   0.47250,  52.38158
   0.47375,  52.37815
   0.47501,  52.37471
   0.47627,  52.37128
   0.47752,  52.36786
   0.47878,  52.36443
   0.48004,  52.36101
   0.48129,  52.35759
   0.48255,  52.35417
   0.48381,  52.35075
   0.48506,  52.34733
   0.48632,  52.34392
   0.48758,  52.34051
   0.48883,  52.33710
   0.49009,  52.33370
   0.49135,  52.33029
   0.49260,  52.32689
   0.49386,  52.32349
   0.49512,  52.32009
   0.49637,  52.31669
   0.49763,  52.31330
   0.49888,  52.30991
   0.50014,  52.30652
   0.50140,  52.30313
   0.50265,  52.29975
   0.50391,  52.29636
   0.50517,  52.29298
   0.50642,  52.28960
   0.50768,  52.28622
   0.50894,  52.28285
   0.51019,  52.27947
   0.51145,  52.27610
   0.51271,  52.27273
   0.51396,  52.26937
   0.51522,  52.26600
   0.51648,  52.26264
   0.51773,  52.25928
   0.51899,  52.25592
   0.52025,  52.25256
   0.52150,  52.24921
   0.52276,  52.24586
   0.52402,  52.24251
   0.52527,  52.23916
   0.52653,  52.23581
   0.52779,  52.23247
   0.52904,  52.22912
   0.53030,  52.22578
   0.53156,  52.22244
   0.53281,  52.21911
   0.53407,  52.21577
   0.53533,  52.21244
   0.53658,  52.20911
   0.53784,  52.20578
   0.53910,  52.20246
   0.54035,  52.19913
   0.54161,  52.19581
   0.54287,  52.19249
   0.54412,  52.18917
   0.54538,  52.18586
   0.54664,  52.18254
   0.54789,  52.17923
   0.54915,  52.17592
   0.55041,  52.17261
   0.55166,  52.16930
   0.55292,  52.16600
   0.55418,  52.16270
   0.55543,  52.15940
   0.55669,  52.15610
   0.55795,  52.15280
   0.55920,  52.14951
   0.56046,  52.14622
   0.56172,  52.14293
   0.56297,  52.13964
   0.56423,  52.13635
   0.56549,  52.13307
   0.56674,  52.12978
   0.56800,  52.12650
   0.56926,  52.12322
   0.57051,  52.11995
   0.57177,  52.11667
   0.57303,  52.11340
   0.57428,  52.11013
   0.57554,  52.10686
   0.57680,  52.10359
   0.57805,  52.10033
   0.57931,  52.09707
   0.58057,  52.09381
   0.58182,  52.09055
   0.58308,  52.08729
   0.58434,  52.08403
   0.58559,  52.08078
   0.58685,  52.07753
   0.58811,  52.07428
   0.58936,  52.07103
   0.59062,  52.06779
   0.59188,  52.06454
   0.59313,  52.06130
   0.59439,  52.05806
   0.59565,  52.05482
   0.59690,  52.05159
   0.59816,  52.04835
   0.59942,  52.04512
   0.60067,  52.04189
   0.60193,  52.03866
   0.60319,  52.03544
   0.60444,  52.03221
   0.60570,  52.02899
   0.60696,  52.02577
   0.60821,  52.02255
   0.60947,  52.01933
   0.61073,  52.01612
   0.61198,  52.01291
   0.61324,  52.00969
   0.61450,  52.00649
   0.61575,  52.00328
   0.61701,  52.00007
   0.61827,  51.99687
   0.61952,  51.99367
   0.62078,  51.99047
   0.62204,  51.98727
   0.62329,  51.98407
   0.62455,  51.98088
   0.62581,  51.97769
   0.62706,  51.97450
   0.62832,  51.97131
   0.62958,  51.96812
   0.63083,  51.96493
   0.63209,  51.96175
   0.63335,  51.95857
   0.63460,  51.95539
   0.63586,  51.95221
   0.63712,  51.94904
   0.63837,  51.94586
   0.63963,  51.94269
   0.64088,  51.93952
   0.64214,  51.93635
   0.64340,  51.93319
   0.64465,  51.93002
   0.64591,  51.92686
   0.64717,  51.92370
   0.64842,  51.92054
   0.64968,  51.91738
   0.65094,  51.91423
   0.65219,  51.91107
   0.65345,  51.90792
   0.65471,  51.90477
   0.65596,  51.90162
   0.65722,  51.89848
   0.65848,  51.89533
   0.65973,  51.89219
   0.66099,  51.88905
   0.66225,  51.88591
   0.66350,  51.88277
   0.66476,  51.87964
   0.66602,  51.87650
   0.66727,  51.87337
   0.66853,  51.87024
   0.66979,  51.86711
   0.67104,  51.86399
   0.67230,  51.86086
   0.67356,  51.85774
   0.67481,  51.85462
   0.67607,  51.85150
   0.67733,  51.84838
   0.67858,  51.84527
   0.67984,  51.84215
   0.68110,  51.83904
   0.68235,  51.83593
   0.68361,  51.83282
   0.68487,  51.82972
   0.68612,  51.82661
   0.68738,  51.82351
   0.68864,  51.82041
   0.68989,  51.81731
   0.69115,  51.81421
   0.69241,  51.81111
   0.69366,  51.80802
   0.69492,  51.80493
   0.69618,  51.80183
   0.69743,  51.79875
   0.69869,  51.79566
   0.69995,  51.79257
   0.70120,  51.78949
   0.70246,  51.78641
   0.70372,  51.78333
   0.70497,  51.78025
   0.70623,  51.77717
   0.70749,  51.77410
   0.70874,  51.77102
   0.71000,  51.76795
   0.71126,  51.76488
   0.71251,  51.76181
   0.71377,  51.75875
   0.71503,  51.75568
   0.71628,  51.75262
   0.71754,  51.74956
   0.71880,  51.74650
   0.72005,  51.74344
   0.72131,  51.74039
   0.72257,  51.73733
   0.72382,  51.73428
   0.72508,  51.73123
   0.72634,  51.72818
   0.72759,  51.72513
   0.72885,  51.72209
   0.73011,  51.71904
   0.73136,  51.71600
   0.73262,  51.71296
   0.73388,  51.70992
   0.73513,  51.70688
   0.73639,  51.70385
   0.73765,  51.70082
   0.73890,  51.69778
   0.74016,  51.69475
   0.74142,  51.69173
   0.74267,  51.68870
   0.74393,  51.68567
   0.74519,  51.68265
   0.74644,  51.67963
   0.74770,  51.67661
   0.74896,  51.67359
   0.75021,  51.67057
   0.75147,  51.66756
   0.75273,  51.66454
   0.75398,  51.66153
   0.75524,  51.65852
   0.75650,  51.65551
   0.75775,  51.65251
   0.75901,  51.64950
   0.76027,  51.64650
   0.76152,  51.64350
   0.76278,  51.64050
   0.76404,  51.63750
   0.76529,  51.63450
   0.76655,  51.63151
   0.76781,  51.62852
   0.76906,  51.62552
   0.77032,  51.62253
   0.77158,  51.61955
   0.77283,  51.61656
   0.77409,  51.61357
   0.77535,  51.61059
   0.77660,  51.60761
   0.77786,  51.60463
   0.77911,  51.60165
   0.78037,  51.59867
   0.78163,  51.59570
   0.78288,  51.59273
   0.78414,  51.58975
   0.78540,  51.58678
   0.78665,  51.58382
   0.78791,  51.58085
   0.78917,  51.57788
   0.79042,  51.57492
   0.79168,  51.57196
   0.79294,  51.56900
   0.79419,  51.56604
   0.79545,  51.56308
   0.79671,  51.56013
   0.79796,  51.55717
   0.79922,  51.55422
   0.80048,  51.55127
   0.80173,  51.54832
   0.80299,  51.54537
   0.80425,  51.54243
   0.80550,  51.53948
   0.80676,  51.53654
   0.80802,  51.53360
   0.80927,  51.53066
   0.81053,  51.52772
   0.81179,  51.52479
   0.81304,  51.52185
   0.81430,  51.51892
   0.81556,  51.51599
   0.81681,  51.51306
   0.81807,  51.51013
   0.81933,  51.50720
   0.82058,  51.50428
   0.82184,  51.50136
   0.82310,  51.49843
   0.82435,  51.49551
   0.82561,  51.49260
   0.82687,  51.48968
   0.82812,  51.48676
   0.82938,  51.48385
   0.83064,  51.48094
   0.83189,  51.47803
   0.83315,  51.47512
   0.83441,  51.47221
   0.83566,  51.46930
   0.83692,  51.46640
   0.83818,  51.46350
   0.83943,  51.46060
   0.84069,  51.45770
   0.84195,  51.45480
   0.84320,  51.45190
   0.84446,  51.44901
   0.84572,  51.44611
   0.84697,  51.44322
   0.84823,  51.44033
   0.84949,  51.43744
   0.85074,  51.43456
   0.85200,  51.43167
   0.85326,  51.42879
   0.85451,  51.42590
   0.85577,  51.42302
   0.85703,  51.42014
   0.85828,  51.41727
   0.85954,  51.41439
   0.86080,  51.41152
   0.86205,  51.40864
   0.86331,  51.40577
   0.86457,  51.40290
   0.86582,  51.40003
   0.86708,  51.39716
   0.86834,  51.39430
   0.86959,  51.39144
   0.87085,  51.38857
   0.87211,  51.38571
   0.87336,  51.38285
   0.87462,  51.38000
   0.87588,  51.37714
   0.87713,  51.37428
   0.87839,  51.37143
   0.87965,  51.36858
   0.88090,  51.36573
   0.88216,  51.36288
   0.88342,  51.36003
   0.88467,  51.35719
   0.88593,  51.35434
   0.88719,  51.35150
   0.88844,  51.34866
   0.88970,  51.34582
   0.89096,  51.34298
   0.89221,  51.34015
   0.89347,  51.33731
   0.89473,  51.33448
   0.89598,  51.33165
   0.89724,  51.32881
   0.89850,  51.32599
   0.89975,  51.32316
   0.90101,  51.32033
   0.90227,  51.31751
   0.90352,  51.31468
   0.90478,  51.31186
   0.90604,  51.30904
   0.90729,  51.30622
   0.90855,  51.30341
   0.90981,  51.30059
   0.91106,  51.29778
   0.91232,  51.29496
   0.91358,  51.29215
   0.91483,  51.28934
   0.91609,  51.28654
   0.91735,  51.28373
   0.91860,  51.28092
   0.91986,  51.27812
   0.92111,  51.27532
   0.92237,  51.27252
   0.92363,  51.26972
   0.92488,  51.26692
   0.92614,  51.26412
   0.92740,  51.26133
   0.92865,  51.25854
   0.92991,  51.25574
   0.93117,  51.25295
   0.93242,  51.25016
   0.93368,  51.24738
   0.93494,  51.24459
   0.93619,  51.24181
   0.93745,  51.23902
   0.93871,  51.23624
   0.93996,  51.23346
   0.94122,  51.23068
   0.94248,  51.22790
   0.94373,  51.22513
   0.94499,  51.22235
   0.94625,  51.21958
   0.94750,  51.21681
   0.94876,  51.21404
   0.95002,  51.21127
   0.95127,  51.20850
   0.95253,  51.20574
   0.95379,  51.20297
   0.95504,  51.20021
   0.95630,  51.19745
   0.95756,  51.19469
   0.95881,  51.19193
   0.96007,  51.18917
   0.96133,  51.18642
   0.96258,  51.18366
   0.96384,  51.18091
   0.96510,  51.17816
   0.96635,  51.17541
   0.96761,  51.17266
   0.96887,  51.16991
   0.97012,  51.16717
   0.97138,  51.16442
   0.97264,  51.16168
   0.97389,  51.15894
   0.97515,  51.15620
   0.97641,  51.15346
   0.97766,  51.15072
   0.97892,  51.14798
   0.98018,  51.14525
   0.98143,  51.14252
   0.98269,  51.13979
   0.98395,  51.13705
   0.98520,  51.13433
   0.98646,  51.13160
   0.98772,  51.12887
   0.98897,  51.12615
   0.99023,  51.12342
   0.99149,  51.12070
   0.99274,  51.11798
   0.99400,  51.11526
   0.99526,  51.11255
   0.99651,  51.10983
   0.99777,  51.10711
   0.99903,  51.10440
   1.00028,  51.10169
   1.00154,  51.09898
   1.00280,  51.09627
   1.00405,  51.09356
   1.00531,  51.09085
   1.00657,  51.08815
   1.00782,  51.08545
   1.00908,  51.08274
   1.01034,  51.08004
   1.01159,  51.07734
   1.01285,  51.07464
   1.01411,  51.07195
   1.01536,  51.06925
   1.01662,  51.06656
   1.01788,  51.06386
   1.01913,  51.06117
   1.02039,  51.05848
   1.02165,  51.05579
   1.02290,  51.05311
   1.02416,  51.05042
   1.02542,  51.04774
   1.02667,  51.04505
   1.02793,  51.04237
   1.02919,  51.03969
   1.03044,  51.03701
   1.03170,  51.03433
   1.03296,  51.03166
   1.03421,  51.02898
   1.03547,  51.02631
   1.03673,  51.02364
   1.03798,  51.02097
   1.03924,  51.01830
   1.04050,  51.01563
   1.04175,  51.01296
   1.04301,  51.01029
   1.04427,  51.00763
   1.04552,  51.00497
   1.04678,  51.00231
   1.04804,  50.99965
   1.04929,  50.99699
   1.05055,  50.99433
   1.05181,  50.99167
   1.05306,  50.98902
   1.05432,  50.98636
   1.05558,  50.98371
   1.05683,  50.98106
   1.05809,  50.97841
   1.05935,  50.97576
   1.06060,  50.97312
   1.06186,  50.97047
   1.06311,  50.96783
   1.06437,  50.96518
   1.06563,  50.96254
   1.06688,  50.95990
   1.06814,  50.95726
   1.06940,  50.95463
   1.07065,  50.95199
   1.07191,  50.94935
   1.07317,  50.94672
   1.07442,  50.94409
   1.07568,  50.94146
   1.07694,  50.93883
   1.07819,  50.93620
   1.07945,  50.93357
   1.08071,  50.93095
   1.08196,  50.92832
   1.08322,  50.92570
   1.08448,  50.92308
   1.08573,  50.92046
   1.08699,  50.91784
   1.08825,  50.91522
   1.08950,  50.91260
   1.09076,  50.90999
   1.09202,  50.90737
   1.09327,  50.90476
   1.09453,  50.90215
   1.09579,  50.89954
   1.09704,  50.89693
   1.09830,  50.89432
   1.09956,  50.89172
   1.10081,  50.88911
   1.10207,  50.88651
   1.10333,  50.88391
   1.10458,  50.88130
   1.10584,  50.87870
   1.10710,  50.87611
   1.10835,  50.87351
   1.10961,  50.87091
   1.11087,  50.86832
   1.11212,  50.86572
   1.11338,  50.86313
   1.11464,  50.86054
   1.11589,  50.85795
   1.11715,  50.85536
   1.11841,  50.85278
   1.11966,  50.85019
   1.12092,  50.84761
   1.12218,  50.84502
   1.12343,  50.84244
   1.12469,  50.83986
   1.12595,  50.83728
   1.12720,  50.83470
   1.12846,  50.83213
   1.12972,  50.82955
   1.13097,  50.82698
   1.13223,  50.82440
   1.13349,  50.82183
   1.13474,  50.81926
   1.13600,  50.81669
   1.13726,  50.81412
